2019-08-06	오전 9:22
Function	Cp-Q
Auto Range	Enabled
Manual Impedance Range	100	Ohms
Signal Frequency	1000.000000	Hz
Signal Type	Voltage
Signal Level	1.000000
Measurement Time	Medium
Averaging Factor	1.000000
Sampling Rate	5.000000	Hz
Cp	Q
1.510610E-11	580.018000
1.511180E-11	501.122000
1.512110E-11	529.971000
1.512510E-11	427.679000
1.512070E-11	433.258000
1.511460E-11	388.381000
1.512010E-11	416.442000
1.511760E-11	530.288000
1.511110E-11	443.060000
1.511080E-11	464.171000
1.512370E-11	437.729000
1.511400E-11	456.640000
1.511140E-11	532.961000
1.512070E-11	607.375000
1.510810E-11	460.165000
1.510520E-11	414.697000
1.511880E-11	622.040000
1.512400E-11	547.722000
1.512200E-11	639.875000
1.511580E-11	690.606000
1.511670E-11	604.000000
1.512170E-11	405.267000
1.511910E-11	408.947000
1.511520E-11	472.959000
1.512070E-11	426.693000
1.511970E-11	560.706000
1.511810E-11	491.819000
1.511140E-11	548.791000
1.511440E-11	569.740000
1.511190E-11	551.925000
1.511110E-11	586.013000
1.512180E-11	542.634000
1.511130E-11	580.567000
1.510890E-11	526.313000
1.512260E-11	521.649000
1.512580E-11	527.816000
1.511990E-11	530.026000
1.512720E-11	415.146000
1.512680E-11	556.511000
1.511900E-11	473.339000
1.511540E-11	408.422000
1.511290E-11	497.517000
1.512120E-11	507.167000
1.511940E-11	621.292000
1.511460E-11	479.028000
1.511480E-11	582.447000
1.511390E-11	379.426000
1.512670E-11	488.783000
1.511700E-11	678.798000
1.511910E-11	495.541000
1.511390E-11	580.144000
1.511370E-11	657.405000
1.511990E-11	525.677000
1.512060E-11	399.300000
1.511530E-11	509.454000
1.512520E-11	434.992000
1.511970E-11	480.820000
1.511090E-11	453.804000
1.510610E-11	447.025000
1.510970E-11	488.183000
1.511560E-11	453.487000
1.511920E-11	566.429000
1.512250E-11	446.605000
1.511540E-11	557.112000
1.510600E-11	381.975000
1.511790E-11	600.145000
1.511990E-11	553.361000
1.511640E-11	437.614000
1.510780E-11	639.196000
1.510960E-11	710.791000
1.511510E-11	515.790000
1.511520E-11	393.846000
1.511320E-11	488.383000
1.510940E-11	372.509000
1.511820E-11	428.170000
1.510910E-11	480.585000
1.510850E-11	568.543000
1.509770E-11	535.089000
1.509640E-11	519.885000
1.510120E-11	520.611000
1.509490E-11	550.863000
1.510050E-11	595.901000
1.508490E-11	501.925000
1.509400E-11	561.673000
1.510030E-11	628.490000
1.509820E-11	465.579000
1.510350E-11	613.780000
1.510330E-11	682.218000
1.510680E-11	416.544000
1.510720E-11	383.083000
1.510300E-11	450.280000
1.510750E-11	497.104000
1.510950E-11	361.985000
1.509380E-11	512.899000
1.508670E-11	594.921000
1.509100E-11	557.253000
1.511340E-11	624.246000
1.511900E-11	528.804000
1.511930E-11	508.958000
1.512510E-11	657.344000
1.511070E-11	424.949000
1.512140E-11	484.021000
1.512420E-11	605.899000
1.512030E-11	412.998000
1.512350E-11	780.486000
1.511830E-11	662.729000
1.511960E-11	450.762000
1.512340E-11	408.730000
1.511280E-11	511.444000
1.511300E-11	393.386000
1.512290E-11	410.152000
1.511810E-11	742.031000
1.510980E-11	446.365000
1.511790E-11	502.816000
1.511610E-11	434.051000
1.512440E-11	494.483000
1.511950E-11	591.293000
1.512570E-11	631.496000
1.511090E-11	417.113000
1.511790E-11	496.660000
1.512000E-11	640.122000
1.512110E-11	404.247000
1.511820E-11	707.446000
1.511550E-11	683.262000
1.511900E-11	414.016000
1.512080E-11	392.916000
1.512300E-11	506.875000
1.512620E-11	402.612000
1.512060E-11	467.721000
1.511530E-11	485.809000
1.511320E-11	526.372000
1.511340E-11	501.266000
1.511910E-11	622.020000
1.512090E-11	496.088000
1.511350E-11	499.993000
1.512200E-11	601.182000
1.510980E-11	411.234000
1.511620E-11	548.393000
1.511790E-11	567.750000
1.512170E-11	454.389000
1.511580E-11	650.391000
1.510590E-11	744.342000
1.509650E-11	450.584000
1.509530E-11	479.445000
1.509300E-11	552.042000
1.509940E-11	459.765000
1.509940E-11	555.648000
1.509400E-11	677.966000
1.506970E-11	461.011000
1.506230E-11	524.987000
1.506420E-11	444.545000
1.506350E-11	564.802000
1.574830E-11	95.480800
1.577800E-11	99.378600
1.582340E-11	85.306000
1.582700E-11	89.171500
1.583700E-11	92.440800
1.584260E-11	89.879900
1.583630E-11	92.424900
1.583810E-11	90.888900
1.584730E-11	89.779600
1.584840E-11	86.248100
1.584190E-11	88.195900
1.585070E-11	88.376900
1.584040E-11	90.139000
1.584500E-11	86.017800
1.584150E-11	85.058900
1.584000E-11	88.083700
1.584670E-11	85.872100
1.584620E-11	90.472800
1.584520E-11	88.655000
1.584600E-11	91.583000
1.584850E-11	88.107900
1.584730E-11	86.151700
1.584620E-11	90.632600
1.585020E-11	87.592000
1.584400E-11	91.263000
1.583770E-11	89.649800
1.584760E-11	87.786900
1.585660E-11	87.219500
1.584860E-11	87.803400
1.585050E-11	90.806100
1.584510E-11	87.742000
1.584640E-11	84.514900
1.584000E-11	84.581800
1.583260E-11	87.725100
1.583790E-11	87.764900
1.584150E-11	91.553500
1.584720E-11	91.173600
1.583500E-11	89.662100
1.584040E-11	84.110000
1.583410E-11	91.035300
1.582980E-11	89.805900
1.583490E-11	88.237000
1.583220E-11	88.265400
1.583150E-11	86.994900
1.583250E-11	89.534400
1.582870E-11	91.157600
1.580860E-11	92.637700
1.580620E-11	93.530600
1.580220E-11	93.921300
1.579830E-11	88.345200
1.579530E-11	86.361500
1.587850E-11	77.051900
1.590880E-11	74.290100
1.593230E-11	78.530800
1.593100E-11	75.674400
1.592800E-11	76.213300
1.594660E-11	74.749000
1.593100E-11	75.853300
1.592910E-11	76.609700
1.594050E-11	80.099200
1.593120E-11	73.910300
1.593150E-11	73.477700
1.593420E-11	78.175400
1.594090E-11	78.447100
1.594460E-11	74.825500
1.594570E-11	79.365200
1.593310E-11	78.548600
1.594000E-11	76.648500
1.594050E-11	76.392600
1.594280E-11	74.643700
1.594360E-11	79.467100
1.593260E-11	75.178600
1.594070E-11	74.252600
1.593690E-11	74.344800
1.593540E-11	73.714300
1.594260E-11	74.039800
1.593610E-11	74.539100
1.593250E-11	74.537500
1.594650E-11	73.860300
1.594750E-11	74.874800
1.593310E-11	74.196300
1.593380E-11	75.982600
1.593040E-11	73.041600
1.594010E-11	72.671400
1.593990E-11	75.395400
1.593650E-11	77.760900
1.593970E-11	76.398300
1.594180E-11	79.717400
1.592970E-11	77.009600
1.593980E-11	75.062900
1.594170E-11	78.210000
1.594160E-11	75.815100
1.593160E-11	77.007500
1.593700E-11	78.321900
1.593530E-11	75.415700
1.592950E-11	73.561700
1.589900E-11	80.317600
1.588010E-11	79.046100
1.587840E-11	75.705700
1.586800E-11	76.206600
1.583050E-11	79.289300
1.544760E-11	157.874000
1.577360E-11	94.628100
1.580690E-11	82.514300
1.581290E-11	85.807600
1.581100E-11	83.583200
1.581200E-11	82.018900
1.580180E-11	88.526600
1.577750E-11	83.488000
1.578460E-11	86.429300
1.577950E-11	85.209300
1.580320E-11	82.941000
1.582330E-11	87.174200
1.511330E-11	533.720000
1.508010E-11	510.517000
1.509740E-11	490.245000
1.509160E-11	614.478000
1.510000E-11	564.202000
1.508820E-11	443.742000
1.510510E-11	412.346000
1.511820E-11	376.905000
1.512920E-11	581.546000
1.512560E-11	401.487000
1.512790E-11	496.287000
1.512320E-11	751.012000
1.511510E-11	440.112000
1.512610E-11	405.103000
1.511950E-11	395.736000
1.512500E-11	499.577000
1.512450E-11	515.389000
1.512220E-11	420.199000
1.512020E-11	382.567000
1.512790E-11	414.568000
1.512690E-11	372.067000
1.512020E-11	372.928000
1.511190E-11	447.250000
1.510700E-11	455.202000
1.510450E-11	531.117000
1.509120E-11	420.470000
1.508370E-11	433.694000
1.508090E-11	615.383000
1.508120E-11	486.418000
1.509440E-11	654.372000
1.509610E-11	642.113000
1.509130E-11	401.827000
1.509060E-11	702.879000
1.508090E-11	396.748000
1.509750E-11	475.595000
1.508750E-11	628.141000
1.509880E-11	575.997000
1.508030E-11	536.193000
1.506680E-11	533.351000
1.506940E-11	554.013000
1.506840E-11	727.530000
1.506520E-11	466.055000
1.506370E-11	597.391000
1.541580E-11	170.643000
1.595850E-11	75.748100
1.599710E-11	73.942100
1.600960E-11	74.253600
1.600050E-11	74.915500
1.600440E-11	70.459000
1.601710E-11	72.505600
1.601180E-11	69.742900
1.601770E-11	72.141800
1.601660E-11	74.498200
1.601870E-11	71.669100
1.600820E-11	70.851000
1.602280E-11	71.384200
1.602490E-11	73.440400
1.602470E-11	70.383400
1.601030E-11	69.587200
1.599850E-11	71.205700
1.598920E-11	74.067000
1.597350E-11	69.739200
1.595760E-11	72.791700
1.593990E-11	73.801400
1.578190E-11	87.363000
1.505740E-11	664.027000
1.507340E-11	574.392000
1.508450E-11	507.986000
1.510200E-11	603.613000
1.508870E-11	430.191000
1.510230E-11	464.468000
1.509820E-11	615.695000
1.511040E-11	500.137000
1.512240E-11	596.660000
1.511720E-11	639.451000
1.511310E-11	385.024000
1.512840E-11	429.851000
1.512630E-11	533.617000
1.512210E-11	468.733000
1.512920E-11	627.523000
1.511870E-11	376.541000
1.511910E-11	385.491000
1.511890E-11	455.100000
1.512020E-11	398.425000
1.512180E-11	603.203000
1.511590E-11	455.189000
1.511380E-11	515.749000
1.512240E-11	407.991000
1.511690E-11	424.276000
1.511740E-11	582.585000
1.512350E-11	563.239000
1.511290E-11	493.436000
1.511280E-11	474.253000
1.512210E-11	477.749000
1.512960E-11	529.894000
1.512430E-11	386.704000
1.512710E-11	443.505000
1.511480E-11	634.362000
1.509900E-11	391.376000
1.509950E-11	408.799000
1.509160E-11	432.854000
1.508930E-11	480.343000
1.508550E-11	618.862000
1.507920E-11	560.281000
1.508120E-11	493.765000
1.509150E-11	409.203000
1.509420E-11	462.252000
1.509630E-11	474.823000
1.511470E-11	516.713000
1.510190E-11	470.869000
1.510450E-11	441.552000
1.511190E-11	492.676000
1.512210E-11	613.112000
1.511840E-11	530.973000
1.512320E-11	485.480000
1.511940E-11	667.886000
1.512390E-11	422.749000
1.512570E-11	373.892000
1.512250E-11	420.294000
1.511320E-11	443.199000
1.511460E-11	530.401000
1.511560E-11	505.639000
1.511320E-11	504.875000
1.512500E-11	409.289000
1.512550E-11	576.205000
1.511430E-11	504.664000
1.512590E-11	545.649000
1.511350E-11	500.726000
1.511480E-11	522.134000
1.512240E-11	542.073000
1.512940E-11	479.947000
1.512830E-11	571.604000
1.512220E-11	516.011000
1.511570E-11	519.387000
1.511470E-11	589.989000
1.511880E-11	392.912000
1.512100E-11	420.277000
1.512520E-11	388.323000
1.512230E-11	521.832000
1.511850E-11	486.251000
1.512150E-11	657.448000
1.511500E-11	388.889000
1.511720E-11	544.709000
1.512250E-11	666.442000
1.512530E-11	454.763000
1.512670E-11	545.653000
1.512390E-11	671.820000
1.511450E-11	433.418000
1.512400E-11	387.940000
1.512720E-11	429.959000
1.511590E-11	408.050000
1.512920E-11	397.449000
1.511630E-11	524.894000
1.511750E-11	468.747000
1.511730E-11	504.973000
1.513040E-11	507.692000
1.512880E-11	384.250000
1.512570E-11	580.438000
1.513130E-11	458.565000
1.513060E-11	429.459000
1.512880E-11	615.985000
1.512950E-11	413.646000
1.512030E-11	444.510000
1.512690E-11	383.111000
1.512880E-11	395.143000
1.511760E-11	406.899000
1.511530E-11	478.821000
1.511640E-11	385.153000
1.512180E-11	385.233000
1.511930E-11	411.242000
1.512640E-11	539.617000
1.512860E-11	486.264000
1.512950E-11	511.419000
1.511820E-11	362.179000
1.511490E-11	454.423000
1.512730E-11	416.986000
1.511710E-11	377.612000
1.513010E-11	429.076000
1.512130E-11	388.886000
1.511310E-11	447.423000
1.511700E-11	597.223000
1.511700E-11	445.556000
1.511030E-11	463.712000
1.511780E-11	582.806000
1.512480E-11	628.178000
1.512400E-11	445.389000
1.512650E-11	554.453000
1.513000E-11	550.818000
1.513340E-11	492.937000
1.512110E-11	370.035000
1.512220E-11	392.410000
1.512600E-11	406.278000
1.512040E-11	635.428000
1.511540E-11	394.064000
1.511690E-11	663.563000
1.511690E-11	407.409000
1.511410E-11	531.688000
1.512430E-11	571.340000
1.512700E-11	532.895000
1.512700E-11	578.384000
1.512670E-11	701.576000
1.512600E-11	596.233000
1.512250E-11	393.135000
1.513060E-11	518.634000
1.512520E-11	687.988000
1.512370E-11	712.771000
1.512170E-11	370.703000
1.511560E-11	533.142000
1.511560E-11	504.405000
1.512890E-11	499.291000
1.512740E-11	355.122000
1.511860E-11	616.283000
1.512620E-11	436.630000
1.512230E-11	547.918000
1.512700E-11	558.697000
1.513000E-11	395.038000
1.512360E-11	382.811000
1.512510E-11	482.778000
1.512200E-11	436.374000
1.511900E-11	366.230000
1.511380E-11	547.301000
1.512020E-11	380.413000
1.512250E-11	362.542000
1.512700E-11	354.824000
1.511650E-11	686.988000
1.512800E-11	469.891000
1.513010E-11	568.055000
1.512040E-11	621.096000
1.511400E-11	411.443000
1.512940E-11	375.319000
1.511930E-11	415.069000
1.512710E-11	462.041000
1.512770E-11	395.189000
1.511770E-11	475.868000
1.512530E-11	459.112000
1.511590E-11	434.057000
1.511450E-11	486.835000
1.511410E-11	537.847000
1.512230E-11	500.499000
1.511390E-11	533.586000
1.511260E-11	441.835000
1.511660E-11	377.031000
1.513370E-11	483.673000
1.512090E-11	444.855000
1.512150E-11	377.246000
1.513090E-11	503.309000
1.511920E-11	598.358000
1.511100E-11	384.417000
1.511730E-11	529.070000
1.511950E-11	416.869000
1.511680E-11	384.259000
1.511980E-11	540.759000
1.511920E-11	619.252000
1.511670E-11	481.550000
1.511360E-11	549.782000
1.512110E-11	725.675000
1.512200E-11	459.239000
1.512190E-11	646.724000
1.512040E-11	625.629000
1.511580E-11	539.330000
1.512100E-11	358.463000
1.511750E-11	463.374000
1.511280E-11	459.219000
1.512060E-11	365.547000
1.512570E-11	444.724000
1.511670E-11	683.982000
1.512220E-11	556.046000
1.511470E-11	411.556000
1.512800E-11	444.451000
1.511950E-11	534.633000
1.511190E-11	420.576000
1.511980E-11	721.243000
1.512250E-11	581.871000
1.512600E-11	445.881000
1.512040E-11	468.926000
1.512690E-11	435.659000
1.512780E-11	407.778000
1.512810E-11	544.405000
1.511290E-11	420.577000
1.511840E-11	569.365000
1.511570E-11	733.748000
1.511590E-11	494.565000
1.512310E-11	441.836000
1.512520E-11	585.642000
1.512300E-11	441.300000
1.511690E-11	670.673000
1.512920E-11	559.086000
1.512490E-11	435.479000
1.511340E-11	412.831000
1.513060E-11	485.901000
1.512780E-11	482.548000
1.511550E-11	438.174000
1.511570E-11	464.021000
1.511230E-11	419.486000
1.511170E-11	393.446000
1.512290E-11	505.423000
1.511920E-11	544.804000
1.511890E-11	622.067000
1.512440E-11	454.281000
1.511950E-11	545.271000
1.511520E-11	428.479000
1.511940E-11	384.998000
1.511580E-11	428.094000
1.512710E-11	568.703000
1.510820E-11	603.220000
1.511280E-11	426.414000
1.511420E-11	518.333000
1.511470E-11	383.478000
1.511560E-11	390.095000
1.511530E-11	521.804000
1.511570E-11	674.368000
1.511470E-11	552.585000
1.511220E-11	600.373000
1.511350E-11	453.344000
1.511720E-11	429.770000
1.512310E-11	437.681000
1.511430E-11	405.981000
1.511900E-11	520.751000
1.511430E-11	504.322000
1.511620E-11	472.477000
1.511520E-11	532.554000
1.512290E-11	403.000000
1.512090E-11	424.050000
1.511930E-11	606.410000
1.512270E-11	351.236000
1.511250E-11	612.204000
1.511320E-11	510.401000
1.512190E-11	511.404000
1.513010E-11	458.591000
1.512280E-11	483.648000
1.512860E-11	453.175000
1.512970E-11	532.880000
1.511600E-11	482.678000
1.511430E-11	408.817000
1.511770E-11	490.881000
1.511740E-11	474.512000
1.512680E-11	532.128000
1.511640E-11	487.351000
1.512320E-11	591.905000
1.512290E-11	503.492000
1.512040E-11	523.130000
1.512430E-11	566.139000
1.511980E-11	469.250000
1.513150E-11	517.525000
1.512550E-11	672.056000
1.510990E-11	610.375000
1.511290E-11	420.072000
1.512040E-11	472.984000
1.512370E-11	476.210000
1.512280E-11	503.889000
1.511630E-11	541.166000
1.511440E-11	767.707000
1.512180E-11	608.296000
1.512710E-11	400.301000
1.511690E-11	399.303000
1.512310E-11	491.128000
1.512240E-11	392.605000
1.512320E-11	655.140000
1.511780E-11	437.141000
1.511910E-11	381.666000
1.512340E-11	548.075000
1.510980E-11	410.853000
1.511120E-11	389.616000
1.511390E-11	501.418000
1.512090E-11	680.115000
1.511260E-11	531.715000
1.511530E-11	581.507000
1.512210E-11	598.539000
1.512150E-11	431.892000
1.511690E-11	368.985000
1.511690E-11	389.943000
1.511510E-11	548.489000
1.512650E-11	534.688000
1.511060E-11	545.903000
1.511200E-11	690.787000
1.510420E-11	486.802000
1.510770E-11	593.240000
1.511840E-11	596.478000
1.511520E-11	568.794000
1.511310E-11	506.021000
1.510920E-11	436.815000
1.511070E-11	527.770000
1.509980E-11	427.921000
1.511630E-11	657.507000
1.511020E-11	635.077000
1.510470E-11	457.734000
1.509980E-11	498.176000
1.511480E-11	508.418000
1.511650E-11	622.868000
1.510250E-11	712.025000
1.509980E-11	466.260000
1.510740E-11	380.000000
1.507440E-11	481.523000
1.507670E-11	497.106000
1.505860E-11	409.550000
1.504870E-11	608.862000
1.504440E-11	591.709000
1.505850E-11	511.970000
1.506650E-11	514.766000
1.507080E-11	409.245000
1.507780E-11	454.745000
1.506320E-11	560.820000
1.505900E-11	677.100000
1.505420E-11	627.123000
1.504710E-11	484.787000
1.565120E-11	367.658000
1.571510E-11	420.193000
1.572390E-11	338.942000
1.573970E-11	284.201000
1.574700E-11	416.343000
1.574340E-11	304.695000
1.573590E-11	366.332000
1.574850E-11	323.946000
1.574150E-11	296.811000
1.573270E-11	305.425000
1.574730E-11	263.583000
1.574040E-11	273.004000
1.573890E-11	382.237000
1.574200E-11	396.040000
1.574000E-11	370.210000
1.573950E-11	358.210000
1.574320E-11	361.437000
1.575110E-11	266.517000
1.574710E-11	273.960000
1.574400E-11	273.362000
1.574820E-11	270.693000
1.574870E-11	345.760000
1.574050E-11	338.204000
1.574810E-11	351.766000
1.573830E-11	276.815000
1.574450E-11	337.188000
1.574920E-11	311.209000
1.574430E-11	280.730000
1.575410E-11	302.409000
1.575250E-11	332.248000
1.574170E-11	388.846000
1.572920E-11	283.238000
1.572980E-11	273.407000
1.573500E-11	291.268000
1.573850E-11	272.070000
1.572760E-11	385.103000
1.574340E-11	315.252000
1.574030E-11	316.661000
1.572940E-11	293.554000
1.572860E-11	341.215000
1.573060E-11	271.844000
1.571710E-11	321.219000
1.571850E-11	278.014000
1.571330E-11	306.679000
1.571300E-11	397.501000
1.572240E-11	363.196000
1.573200E-11	349.495000
1.572570E-11	372.277000
1.569970E-11	334.934000
1.569800E-11	271.590000
1.569070E-11	307.017000
1.569260E-11	311.090000
1.568690E-11	332.479000
1.568520E-11	313.873000
1.568210E-11	434.429000
1.575890E-11	382.602000
1.578980E-11	260.276000
1.579360E-11	275.009000
1.579390E-11	349.719000
1.579580E-11	271.469000
1.580470E-11	293.049000
1.581020E-11	259.210000
1.579590E-11	318.926000
1.579220E-11	356.075000
1.579330E-11	307.547000
1.579620E-11	324.883000
1.579440E-11	391.495000
1.580680E-11	294.809000
1.579930E-11	307.964000
1.579580E-11	293.975000
1.580940E-11	270.383000
1.580350E-11	255.841000
1.579770E-11	366.403000
1.578290E-11	361.133000
1.578550E-11	279.319000
1.579340E-11	276.870000
1.578800E-11	411.676000
1.579340E-11	317.691000
1.579070E-11	378.097000
1.580250E-11	330.280000
1.579460E-11	325.472000
1.579460E-11	278.160000
1.580140E-11	281.898000
1.579830E-11	289.235000
1.578900E-11	314.306000
1.579160E-11	315.905000
1.578890E-11	314.830000
1.578380E-11	347.684000
1.578170E-11	292.808000
1.578790E-11	319.639000
1.577910E-11	319.612000
1.577750E-11	276.080000
1.578580E-11	327.399000
1.577730E-11	354.974000
1.577060E-11	332.569000
1.576980E-11	351.329000
1.577710E-11	285.270000
1.576500E-11	352.584000
1.575330E-11	374.817000
1.574920E-11	289.252000
1.573880E-11	437.256000
1.576110E-11	408.102000
1.578630E-11	329.737000
1.579740E-11	287.866000
1.582630E-11	310.314000
1.583550E-11	287.585000
1.583970E-11	275.609000
1.582950E-11	300.097000
1.582230E-11	328.706000
1.582860E-11	356.285000
1.583230E-11	308.403000
1.583730E-11	306.410000
1.583590E-11	324.137000
1.583760E-11	341.288000
1.582370E-11	327.954000
1.583460E-11	315.036000
1.583820E-11	319.539000
1.582710E-11	291.944000
1.583410E-11	304.626000
1.583100E-11	331.008000
1.582480E-11	311.557000
1.581740E-11	284.798000
1.582380E-11	308.014000
1.582570E-11	306.192000
1.582710E-11	314.527000
1.581980E-11	327.994000
1.582500E-11	382.781000
1.582750E-11	341.030000
1.582090E-11	322.707000
1.582090E-11	279.585000
1.582400E-11	342.629000
1.582290E-11	270.528000
1.582280E-11	398.058000
1.582270E-11	298.186000
1.581800E-11	295.644000
1.580490E-11	308.684000
1.579430E-11	287.895000
1.578740E-11	265.886000
1.576900E-11	307.312000
1.577040E-11	358.043000
1.577140E-11	301.295000
1.579070E-11	357.896000
1.579750E-11	325.960000
1.582520E-11	317.838000
1.584950E-11	304.411000
1.583710E-11	306.431000
1.583190E-11	261.433000
1.582490E-11	289.456000
1.583110E-11	276.024000
1.582890E-11	294.618000
1.584080E-11	324.908000
1.582980E-11	376.443000
1.582460E-11	282.956000
1.582860E-11	309.503000
1.582670E-11	292.185000
1.582730E-11	272.831000
1.583060E-11	317.829000
1.583650E-11	401.318000
1.583980E-11	331.894000
1.585470E-11	345.516000
1.583960E-11	343.159000
1.584830E-11	331.358000
1.584990E-11	276.763000
1.584330E-11	275.941000
1.584700E-11	312.444000
1.583650E-11	379.301000
1.584480E-11	273.983000
1.583730E-11	310.767000
1.583610E-11	316.970000
1.583450E-11	305.121000
1.583190E-11	321.791000
1.584130E-11	342.498000
1.583580E-11	364.330000
1.582890E-11	347.940000
1.584100E-11	348.909000
1.585040E-11	304.314000
1.584320E-11	355.001000
1.583670E-11	376.807000
1.583310E-11	345.516000
1.584310E-11	284.011000
1.582900E-11	262.670000
1.582330E-11	295.237000
1.582850E-11	381.979000
1.583230E-11	331.180000
1.581020E-11	320.758000
1.581030E-11	364.791000
1.579500E-11	299.755000
1.580930E-11	273.420000
1.581070E-11	377.190000
1.582050E-11	311.612000
1.586140E-11	299.876000
1.586860E-11	345.193000
1.587940E-11	301.755000
1.586540E-11	262.733000
1.587200E-11	276.931000
1.587630E-11	283.199000
1.587640E-11	294.155000
1.586310E-11	266.183000
1.586690E-11	353.556000
1.586520E-11	356.709000
1.586210E-11	326.648000
1.586930E-11	248.937000
1.587090E-11	342.286000
1.587050E-11	256.296000
1.586400E-11	338.101000
1.586980E-11	305.837000
1.586380E-11	253.479000
1.586200E-11	257.626000
1.586380E-11	294.761000
1.585970E-11	284.428000
1.585750E-11	277.661000
1.585300E-11	333.844000
1.586740E-11	318.031000
1.586260E-11	331.351000
1.585000E-11	333.434000
1.585510E-11	306.409000
1.587130E-11	313.911000
1.587300E-11	331.517000
1.586370E-11	379.126000
1.585340E-11	294.770000
1.586670E-11	298.741000
1.585310E-11	282.563000
1.586440E-11	294.710000
1.585950E-11	272.314000
1.584940E-11	315.253000
1.585170E-11	356.203000
1.585920E-11	291.040000
1.585580E-11	301.112000
1.585900E-11	282.457000
1.586770E-11	337.425000
1.585610E-11	343.739000
1.585170E-11	314.104000
1.585530E-11	279.158000
1.587060E-11	318.247000
1.585860E-11	258.371000
1.586190E-11	260.141000
1.586400E-11	284.858000
1.586590E-11	347.517000
1.585380E-11	282.273000
1.585550E-11	384.937000
1.585260E-11	287.773000
1.584810E-11	270.873000
1.584890E-11	368.527000
1.584930E-11	286.612000
1.583480E-11	335.095000
1.582950E-11	306.278000
1.583100E-11	379.461000
1.583040E-11	259.143000
1.587460E-11	364.904000
1.587650E-11	274.845000
1.587730E-11	297.133000
1.587530E-11	250.172000
1.586890E-11	342.151000
1.586440E-11	315.993000
1.587190E-11	262.373000
1.588220E-11	283.008000
1.586720E-11	348.868000
1.588130E-11	273.680000
1.587040E-11	306.039000
1.587730E-11	365.109000
1.588310E-11	288.453000
1.588710E-11	282.710000
1.588070E-11	339.700000
1.587860E-11	317.771000
1.588050E-11	258.942000
1.586460E-11	289.812000
1.588140E-11	269.941000
1.588480E-11	290.629000
1.588390E-11	320.143000
1.586330E-11	277.811000
1.587590E-11	347.634000
1.587240E-11	337.446000
1.586430E-11	282.356000
1.587560E-11	243.462000
1.587820E-11	350.922000
1.587750E-11	269.090000
1.587110E-11	316.593000
1.587730E-11	374.826000
1.587780E-11	278.442000
1.588090E-11	270.702000
1.587340E-11	315.645000
1.587650E-11	306.029000
1.587330E-11	259.993000
1.586560E-11	272.514000
1.587790E-11	260.713000
1.587930E-11	300.592000
1.586760E-11	282.507000
1.585510E-11	279.845000
1.586310E-11	338.467000
1.585420E-11	336.068000
1.585000E-11	297.420000
1.586560E-11	260.305000
1.586540E-11	361.534000
1.587140E-11	285.163000
1.586120E-11	302.719000
1.586760E-11	370.112000
1.587070E-11	283.909000
1.586150E-11	306.099000
1.584170E-11	380.904000
1.583590E-11	318.405000
1.584440E-11	336.104000
1.583090E-11	255.945000
1.585250E-11	328.555000
1.585770E-11	329.130000
1.586880E-11	350.598000
1.588280E-11	250.046000
1.587720E-11	307.545000
1.586410E-11	261.505000
1.587100E-11	264.117000
1.587370E-11	360.089000
1.586150E-11	296.455000
1.586720E-11	332.092000
1.585840E-11	361.579000
1.585950E-11	287.056000
1.586260E-11	374.904000
1.585970E-11	357.183000
1.586060E-11	314.159000
1.586430E-11	301.089000
1.587060E-11	356.534000
1.588500E-11	310.499000
1.587680E-11	312.517000
1.586980E-11	262.881000
1.588730E-11	327.351000
1.588930E-11	309.019000
1.588440E-11	247.844000
1.589170E-11	274.829000
1.587740E-11	288.314000
1.587460E-11	301.500000
1.588460E-11	274.932000
1.587160E-11	281.918000
1.588980E-11	305.279000
1.588140E-11	312.428000
1.587660E-11	264.881000
1.587470E-11	272.091000
1.587510E-11	272.455000
1.587230E-11	274.867000
1.586250E-11	287.732000
1.585920E-11	344.592000
1.586620E-11	272.358000
1.586700E-11	273.395000
1.587650E-11	278.227000
1.587620E-11	277.967000
1.588330E-11	345.096000
1.587870E-11	371.435000
1.587130E-11	311.523000
1.587960E-11	250.593000
1.587730E-11	328.104000
1.587340E-11	287.517000
1.584760E-11	354.558000
1.585120E-11	321.677000
1.585620E-11	280.971000
1.585330E-11	282.127000
1.589300E-11	289.792000
1.590060E-11	311.262000
1.589900E-11	293.833000
1.588220E-11	252.360000
1.586830E-11	313.322000
1.586620E-11	283.338000
1.587700E-11	272.317000
1.587750E-11	354.410000
1.586770E-11	288.820000
1.586830E-11	278.537000
1.587400E-11	271.238000
1.587500E-11	343.895000
1.586610E-11	333.139000
1.586750E-11	339.483000
1.587310E-11	262.345000
1.587000E-11	310.254000
1.586310E-11	304.556000
1.587240E-11	329.507000
1.586440E-11	317.111000
1.586470E-11	289.254000
1.588790E-11	286.953000
1.588040E-11	331.236000
1.587530E-11	293.262000
1.588240E-11	276.174000
1.589100E-11	259.091000
1.589230E-11	299.300000
1.589880E-11	306.936000
1.589190E-11	326.107000
1.588890E-11	305.485000
1.589150E-11	277.275000
1.588420E-11	277.744000
1.589630E-11	287.123000
1.588230E-11	314.367000
1.587710E-11	298.358000
1.587790E-11	300.510000
1.586400E-11	273.407000
1.586000E-11	335.305000
1.585710E-11	348.453000
1.585410E-11	313.220000
1.586290E-11	252.963000
1.587850E-11	305.352000
1.588880E-11	297.452000
1.589270E-11	293.651000
1.588960E-11	267.143000
1.588500E-11	284.051000
1.588050E-11	274.166000
1.588730E-11	257.321000
1.588980E-11	318.108000
1.588500E-11	268.034000
1.589140E-11	275.300000
1.589270E-11	316.091000
1.589440E-11	273.579000
1.589330E-11	301.107000
1.589120E-11	294.475000
1.589440E-11	255.142000
1.589410E-11	268.827000
1.588790E-11	295.656000
1.589460E-11	309.689000
1.589060E-11	271.565000
1.589250E-11	254.991000
1.589510E-11	252.881000
1.588760E-11	338.193000
1.588750E-11	309.580000
1.588310E-11	343.981000
1.586030E-11	310.791000
1.586240E-11	278.059000
1.586050E-11	322.829000
1.585560E-11	314.688000
1.585920E-11	308.227000
1.587990E-11	279.805000
1.589820E-11	288.663000
1.591240E-11	279.180000
1.590140E-11	322.862000
1.589940E-11	311.563000
1.590920E-11	330.092000
1.590650E-11	277.962000
1.590640E-11	330.891000
1.590230E-11	359.346000
1.589470E-11	320.574000
1.590710E-11	258.218000
1.589760E-11	277.144000
1.589790E-11	261.448000
1.589540E-11	316.558000
1.590730E-11	351.186000
1.590190E-11	310.459000
1.589610E-11	317.570000
1.589460E-11	264.199000
1.589650E-11	253.146000
1.588460E-11	289.070000
1.588920E-11	261.278000
1.587980E-11	269.069000
1.588040E-11	274.884000
1.587500E-11	325.662000
1.588230E-11	324.191000
1.588410E-11	266.536000
1.589080E-11	298.634000
1.588160E-11	316.516000
1.586620E-11	342.793000
1.587590E-11	286.686000
1.587000E-11	326.464000
1.586100E-11	309.541000
1.587510E-11	259.263000
1.589750E-11	318.229000
1.590480E-11	253.272000
1.589400E-11	338.440000
1.589460E-11	306.861000
1.589330E-11	286.745000
1.589050E-11	264.145000
1.589290E-11	280.964000
1.589720E-11	280.433000
1.589490E-11	281.446000
1.588430E-11	244.661000
1.589500E-11	294.980000
1.589620E-11	321.928000
1.589370E-11	341.357000
1.589690E-11	260.152000
1.589920E-11	284.252000
1.590310E-11	285.943000
1.590910E-11	273.135000
1.591190E-11	331.248000
1.591390E-11	279.255000
1.590640E-11	359.272000
1.590120E-11	260.191000
1.591380E-11	269.182000
1.589470E-11	325.853000
1.588340E-11	247.041000
1.587260E-11	324.425000
1.586620E-11	344.019000
1.587410E-11	243.518000
1.589390E-11	313.675000
1.590990E-11	311.452000
1.592340E-11	258.947000
1.592670E-11	319.780000
1.593250E-11	296.976000
1.592990E-11	237.398000
1.592570E-11	244.435000
1.593190E-11	300.080000
1.591700E-11	306.545000
1.592970E-11	245.684000
1.591280E-11	266.847000
1.593300E-11	256.533000
1.591840E-11	257.478000
1.591390E-11	255.155000
1.591190E-11	291.603000
1.590200E-11	255.526000
1.589970E-11	247.750000
1.589050E-11	283.699000
1.589050E-11	342.445000
1.590470E-11	326.954000
1.589240E-11	294.814000
1.589720E-11	282.554000
1.589930E-11	297.147000
1.590280E-11	380.510000
1.589890E-11	298.198000
1.589180E-11	337.340000
1.588260E-11	261.689000
1.589260E-11	316.061000
1.588570E-11	260.675000
1.616680E-11	247.648000
1.619780E-11	213.480000
1.624310E-11	194.414000
1.605570E-11	240.015000
1.596060E-11	219.954000
1.596660E-11	249.332000
1.594680E-11	343.735000
1.593470E-11	271.666000
1.594170E-11	274.953000
1.594820E-11	297.068000
1.594680E-11	285.146000
1.594140E-11	289.270000
1.594240E-11	349.291000
1.594270E-11	303.333000
1.594110E-11	282.477000
1.594440E-11	259.947000
1.594450E-11	285.339000
1.595010E-11	266.856000
1.594460E-11	322.879000
1.596230E-11	268.410000
1.596470E-11	271.606000
1.594890E-11	313.930000
1.594340E-11	273.192000
1.593560E-11	296.134000
1.593190E-11	258.496000
1.602640E-11	225.055000
1.622960E-11	202.528000
1.595750E-11	251.158000
1.595580E-11	232.015000
1.594470E-11	315.046000
1.593690E-11	295.411000
1.593700E-11	294.479000
1.616980E-11	224.367000
1.625580E-11	201.207000
1.598330E-11	266.561000
1.597640E-11	291.511000
1.594810E-11	277.697000
1.595000E-11	297.987000
1.607380E-11	265.530000
1.623300E-11	206.193000
1.598470E-11	311.467000
1.597730E-11	330.607000
1.597780E-11	272.841000
1.597190E-11	234.414000
1.597870E-11	261.954000
1.597280E-11	267.199000
1.597570E-11	293.682000
1.596810E-11	249.950000
1.596960E-11	262.378000
1.597530E-11	244.045000
1.598600E-11	235.218000
1.598950E-11	271.893000
1.596420E-11	290.834000
1.594190E-11	320.849000
1.590950E-11	223.216000
1.590930E-11	266.824000
1.587980E-11	305.874000
1.588110E-11	257.931000
1.562840E-11	429.031000
1.580490E-11	315.211000
1.591250E-11	283.316000
1.594590E-11	275.029000
1.593390E-11	290.269000
1.593470E-11	297.115000
1.592620E-11	305.663000
1.592790E-11	255.117000
1.593510E-11	242.717000
1.595170E-11	249.256000
1.595150E-11	228.905000
1.594530E-11	308.746000
1.594350E-11	287.270000
1.592580E-11	275.386000
1.591310E-11	243.498000
1.588800E-11	296.584000
1.587380E-11	308.026000
1.584720E-11	248.122000
1.583750E-11	317.392000
1.588200E-11	278.705000
1.590710E-11	243.549000
1.590930E-11	282.762000
1.591450E-11	281.620000
1.591490E-11	282.663000
1.591160E-11	263.110000
1.591550E-11	241.277000
1.591930E-11	226.849000
1.591670E-11	257.206000
1.591620E-11	241.637000
1.591530E-11	292.630000
1.590010E-11	277.447000
1.589290E-11	288.235000
1.586570E-11	231.972000
1.584080E-11	282.700000
1.583130E-11	292.687000
1.580960E-11	329.094000
1.561850E-11	397.694000
1.585710E-11	241.503000
1.589040E-11	296.939000
1.587510E-11	297.797000
1.593210E-11	280.425000
1.554150E-11	445.822000
1.588480E-11	296.604000
1.591580E-11	236.435000
1.592470E-11	238.138000
1.591930E-11	249.241000
1.592530E-11	236.317000
1.591270E-11	261.332000
1.589790E-11	253.967000
1.586860E-11	276.348000
1.589590E-11	265.315000
1.589960E-11	284.688000
1.588770E-11	257.400000
1.589840E-11	300.624000
1.588470E-11	239.656000
1.588090E-11	241.541000
1.587770E-11	273.396000
1.584860E-11	308.343000
1.583320E-11	248.373000
1.569880E-11	241.586000
1.582840E-11	330.847000
1.584840E-11	291.552000
1.584530E-11	327.893000
1.584150E-11	283.204000
1.582400E-11	266.457000
1.581110E-11	319.462000
1.582210E-11	265.752000
1.580890E-11	282.822000
1.578590E-11	348.774000
1.506880E-11	603.598000
1.508960E-11	542.719000
1.533580E-11	445.611000
1.534980E-11	390.240000
1.532930E-11	381.379000
1.532070E-11	405.282000
1.530210E-11	393.315000
1.507290E-11	398.629000
1.509210E-11	468.892000
1.510240E-11	337.115000
1.512200E-11	370.585000
1.511690E-11	512.985000
1.512350E-11	474.745000
1.512180E-11	476.940000
1.512460E-11	420.687000
1.512240E-11	513.598000
1.512580E-11	409.409000
1.513200E-11	454.364000
1.512930E-11	386.565000
1.512770E-11	530.284000
1.512270E-11	473.544000
1.512590E-11	394.341000
1.512330E-11	391.886000
1.512820E-11	489.007000
1.512480E-11	395.215000
1.512310E-11	439.794000
1.512410E-11	599.243000
1.512270E-11	348.746000
1.512650E-11	378.462000
1.513230E-11	443.441000
1.512540E-11	527.219000
1.512540E-11	550.694000
1.512300E-11	608.800000
1.512680E-11	546.639000
1.513180E-11	411.991000
1.513470E-11	402.928000
1.512650E-11	441.796000
1.513090E-11	361.030000
1.512410E-11	500.418000
1.512540E-11	366.186000
1.512050E-11	418.992000
1.513450E-11	396.602000
1.511670E-11	426.574000
1.511920E-11	494.979000
1.513190E-11	519.038000
1.511310E-11	463.123000
1.511700E-11	406.533000
1.512980E-11	546.076000
1.513190E-11	565.152000
1.512710E-11	633.948000
1.512830E-11	522.407000
1.512880E-11	572.429000
1.512710E-11	360.717000
1.512600E-11	390.478000
1.512500E-11	414.313000
1.512180E-11	394.689000
1.512700E-11	606.373000
1.512330E-11	428.052000
1.512250E-11	559.127000
1.512430E-11	378.438000
1.512040E-11	438.893000
1.512270E-11	541.213000
1.513330E-11	375.104000
1.512660E-11	634.392000
1.511990E-11	546.674000
1.513250E-11	382.558000
1.513010E-11	426.878000
1.511850E-11	463.851000
1.512390E-11	362.895000
1.513410E-11	399.301000
1.512250E-11	407.048000
1.511290E-11	490.282000
1.512020E-11	480.383000
1.512200E-11	382.203000
1.513040E-11	407.518000
1.512460E-11	573.507000
1.513020E-11	561.263000
1.511350E-11	524.296000
1.512350E-11	365.097000
1.513170E-11	502.904000
1.512400E-11	425.821000
1.513410E-11	418.475000
1.513050E-11	485.290000
1.512120E-11	392.557000
1.511970E-11	381.909000
1.512720E-11	397.921000
1.511810E-11	512.039000
2019-08-06	오전 9:27
Function	Cp-Q
Auto Range	Enabled
Manual Impedance Range	100	Ohms
Signal Frequency	1000.000000	Hz
Signal Type	Voltage
Signal Level	1.000000
Measurement Time	Medium
Averaging Factor	1.000000
Sampling Rate	5.000000	Hz
Cp	Q
1.513400E-11	427.470000
1.512390E-11	334.660000
1.513360E-11	409.697000
1.512040E-11	634.698000
1.511590E-11	471.635000
1.511520E-11	407.084000
1.512760E-11	395.244000
1.512030E-11	617.135000
1.512640E-11	416.721000
1.512990E-11	465.051000
1.513190E-11	605.904000
1.512230E-11	401.257000
1.511880E-11	389.239000
1.512870E-11	400.457000
1.512370E-11	421.350000
